#   1 X_IMAGE                Object position along x                                    [pixel]
#   2 Y_IMAGE                Object position along y                                    [pixel]
#   3 A_IMAGE                Profile RMS along major axis                               [pixel]
#   4 B_IMAGE                Profile RMS along minor axis                               [pixel]
#   5 THETA_IMAGE            Position angle (CCW/x)                                     [deg]
#   6 FWHM_IMAGE             FWHM assuming a gaussian core                              [pixel]
#   7 FLUX_GROWTHSTEP        Step for growth-curves                                     [pixel]
#   8 MAG_GROWTHSTEP         Step for growth-curves                                     [pixel]
#   9 FLUX_RADIUS            Fraction-of-light radii                                    [pixel]
#  10 XPSF_IMAGE             X coordinate from PSF-fitting                              [pixel]
#  11 YPSF_IMAGE             Y coordinate from PSF-fitting                              [pixel]
#  12 XMODEL_IMAGE           X coordinate from model-fitting                            [pixel]
#  13 YMODEL_IMAGE           Y coordinate from model-fitting                            [pixel]
#  14 SPHEROID_REFF_IMAGE    Spheroid effective radius from fitting                     [pixel]
#  15 DISK_SCALE_IMAGE       Disk scalelength from fitting                              [pixel]
   250.8882    250.7354    29.933    18.572  53.01    10.02      0.000      0.000     18.663    250.9601    250.6454    250.8496    250.6266    15.2368    21.2501
   138.6063    133.4344    10.581     5.300 -65.16    44.96      0.000      0.000     30.078    136.4181    136.1936    139.0932    133.1093    72.7809    25.6371
   369.4997    131.5249    17.447     8.576  43.10    73.43      0.000      0.000     28.251    367.6660    133.1468    369.6927    148.3494   115.1913    33.5023
   104.3498    279.3932    12.777     6.726  75.08    46.92      0.000      0.000     14.264    104.2196    279.9373    105.8401    279.8760    21.5215    16.4589
   174.2744    110.2651    13.886     3.585 -43.16    42.35      0.000      0.000     15.574    174.1786    108.8885    174.2234    109.9561    83.0755    25.0241
   110.9631    196.3956    10.993     4.839  70.39    38.76      0.000      0.000     19.279    108.5642    193.8120    112.2182    196.1961     9.9872    20.0317
     7.2541    241.5466     5.991     3.833 -61.53    28.76      0.000      0.000     18.530      7.8974    240.8316      4.2386    247.7842     0.0270    55.6707
   420.4739     37.5870     1.977     1.871 -40.64     3.07      0.000      0.000      1.873    420.4528     37.5606    420.4534     37.5566     1.4077     0.7561
   130.0533    168.0355    12.201     7.437 -79.71    57.19      0.000      0.000     30.917    131.1939    167.3452    128.9850    169.7369    91.4856    32.9883
   226.8454     17.3909     2.762     1.610 -35.47     7.77      0.000      0.000      4.301    226.8945     17.4969    227.0206     17.2367    37.4720     1.6444
   378.7361    159.3364    19.475     9.401  42.72    81.23      0.000      0.000     31.087    377.6437    159.7381    375.5937    158.6619   167.7854    33.0469
    85.1768     10.5436     2.181     1.334 -85.41     6.97      0.000      0.000      2.528     85.6457     10.0123     85.2906     10.4048     5.3712     1.8167
   220.7183     15.1279     2.784     2.001 -26.38     7.60      0.000      0.000      4.888    220.8398     15.1015    220.9349     15.0925    44.5439     2.2094
   384.6334     13.3176     2.067     1.976 -43.41     3.27      0.000      0.000      1.906    384.6506     13.2135    384.6214     13.2917     1.9015     0.8072
   371.8430    199.2087     1.955     1.127  -7.96     8.88      0.000      0.000      9.098    372.3322    199.6006    371.9280    199.0695    53.7816    16.2926
   406.7112    498.5824     1.011     0.817 -36.25     2.93      0.000      0.000      1.873    406.7361    498.9532    406.7450    498.8764     0.6823     1.7929
   253.8669    497.4923     1.911     1.351  17.54     4.83      0.000      0.000      2.963    253.6804    497.6051    253.6989    497.5683     2.5798    14.2248
   467.1268    431.5328     2.914     1.924   1.89     6.67      0.000      0.000      3.018    467.7801    431.5322    467.6847    431.5407     1.0944     2.0596
    38.7530    434.5945     0.971     0.639  16.79     4.42      0.000      0.000      2.816     38.7530    434.5945     38.9679    434.5184     1.1054     1.6466
   293.6302    428.8113     1.118     0.670  49.30     5.15      0.000      0.000      1.818    293.8410    429.0905    293.6618    428.7547     1.4838     0.8998
   261.0856    422.1916     1.192     1.088  68.86     6.80      0.000      0.000      4.162    260.8146    422.0775    260.8906    422.2286     4.3450     4.7032
   256.0946    413.5020     3.702     1.924 -24.98    16.01      0.000      0.000     10.397    255.8741    413.9712    256.1481    413.8047    19.6074    16.8763
   263.4424    410.8313     1.928     1.750  23.43    11.01      0.000      0.000      6.930    262.8871    410.2556    263.4967    411.2775     2.0061    12.8654
   431.1211    410.9502     1.282     0.945 -48.55     3.75      0.000      0.000      1.608    430.9083    410.7373    431.0711    410.8117     4.1029     0.6502
   114.9704    352.2888    15.645     4.101  42.11    48.08      0.000      0.000     17.411    111.7441    351.7790    119.2137    354.7749    88.0924    31.3137
   221.6042    399.9793     8.973     3.810 -15.29    35.10      0.000      0.000     12.000    217.5830    400.6569    219.0396    400.5295    53.1721    10.9453
   179.0864    378.6509     3.595     1.615 -29.04    14.45      0.000      0.000      7.113    179.9783    378.4856    179.6718    378.6445     2.9143    12.4435
   180.9378    396.9988     9.362     3.707   5.70    35.36      0.000      0.000     22.162    181.3531    397.2169    182.2762    397.1524    68.7358    17.7743
   155.5981    385.3885    10.895     4.681  23.61    42.87      0.000      0.000     24.235    157.2321    384.5485    155.8075    384.6970    78.8971    21.4495
   160.6392    408.2037     1.155     0.891 -79.50     3.77      0.000      0.000      3.797    160.7084    408.2999    160.6368    408.3017    10.5974    18.7924
   419.5002    399.9667     1.057     0.936 -49.97     3.89      0.000      0.000      2.244    419.6271    399.6407    419.5346    399.8593     4.0851     1.1482
   427.9985    394.5034     1.056     0.645  62.40     4.90      0.000      0.000      2.023    427.9985    394.5034    427.7991    394.5267     6.0328     1.4363
    78.1454    392.7037     1.609     1.520 -69.56     3.19      0.000      0.000      1.862     78.2065    392.7569     78.1784    392.7562     1.6863     0.8666
   297.1656    392.1181     1.362     0.704 -39.34     5.84      0.000      0.000      2.072    296.5519    392.3575    296.7459    392.4250     5.6892     1.3386
   382.4069    329.8750     9.124     3.840 -51.44    35.53      0.000      0.000     21.947    380.8464    326.9971    383.0490    329.5634    52.0891    26.4821
   368.6910    347.6052     4.871     3.254 -59.51    23.89      0.000      0.000     18.528    368.2581    349.0524    368.2535    348.0879    42.6633    16.1009
   336.9303    376.8303     9.869     4.206 -38.86    38.68      0.000      0.000     14.834    338.4603    377.5110    338.5328    377.1462     4.7804    17.6234
   362.2326    361.2878     2.758     2.464  35.96     6.48      0.000      0.000     10.191    362.9999    361.6237    362.9142    361.6407     2.1733    23.7255
   234.4709    383.1876     2.231     1.066 -63.07     9.23      0.000      0.000      8.945    234.0904    383.1971    234.0998    383.2056    20.6146    12.9384
   229.0734    384.1228     1.977     0.956 -24.06     8.22      0.000      0.000      8.492    229.4491    383.6651    229.8968    384.1479    27.0197    17.3316
   102.4038    376.8212     1.445     1.106  -7.19     4.96      0.000      0.000      2.669    102.5445    376.8219    102.2374    376.8207    26.3952     0.5771
   172.6230    368.7000     1.553     1.048  41.20     7.62      0.000      0.000      3.781    172.5232    368.5597    172.4165    368.8573     4.4815     6.4971
   332.5558    494.2056     1.005     0.718  -0.95     5.05      0.000      0.000      1.725    332.5558    494.2056    332.6996    494.2770     1.5878     0.8804
   434.9650    232.6134     1.718     1.192  85.96     4.95      0.000      0.000      2.163    435.0262    232.5759    435.0490    232.5862     0.9931     1.2621
   408.5039    227.7888     2.099     1.294 -19.32     9.87      0.000      0.000      8.545    408.8778    228.0640    405.5740    228.7374    16.2954    14.8236
   397.6192    217.0877     4.052     2.787  51.55    13.84      0.000      0.000     16.090    396.8353    215.9475    397.0424    216.2303    24.1994    13.3088
   386.9501    222.4328     2.852     2.116 -23.71    14.73      0.000      0.000     14.724    386.3340    223.0221    386.9085    221.9517    17.6996    17.8523
   128.9024    323.8738     1.904     1.773  37.23     6.97      0.000      0.000      4.337    128.9123    324.1512    128.9291    323.9971    14.3020     2.8985
   125.6615    220.7065     2.043     1.023  83.34     8.65      0.000      0.000      7.818    125.8867    221.9882    126.4025    221.2733    28.3751    17.9049
    95.5641    336.3648     2.201     1.871 -16.78     3.42      0.000      0.000      2.833     95.4544    336.4281     95.4717    336.4066     1.7793    12.8541
   371.6676    217.3349     1.856     0.954   4.36     7.96      0.000      0.000      7.469    372.0021    217.7905    372.1082    216.7333    17.8318    12.6017
   349.5275    184.3055     4.638     3.526 -22.69     7.15      0.000      0.000      4.381    348.7448    184.9361    348.7552    184.8362    61.7596     1.8256
   362.9501    491.4239     1.399     1.005 -42.18     4.48      0.000      0.000      2.026    363.1242    491.5233    363.0547    491.4855     2.4987     1.1091
     2.9027    276.4319     4.161     1.761  80.69    16.24      0.000      0.000     15.168      3.1958    276.2209      1.7001    276.7920    48.3493    25.5841
   112.2416    322.8281     1.906     1.485  72.24    10.08      0.000      0.000      9.512    112.3912    323.6238    111.6371    323.1385    26.7295    11.8426
   443.9269    267.8954     1.201     0.840  83.92     4.09      0.000      0.000      1.550    443.7434    267.8577    443.7025    267.9737     0.4967     0.0937
    76.9958    207.8825     1.192     0.961 -52.35     3.33      0.000      0.000      1.546     76.8944    207.8667     76.9907    207.9064     0.4745     0.4839
   492.3524    319.8884     1.095     0.989 -41.27     4.16      0.000      0.000      2.029    492.3593    319.8943    492.4310    319.9206     4.4916     0.8311
   403.8614    299.5212     3.422     2.492 -61.93    17.52      0.000      0.000     11.679    405.9984    300.0298    401.3482    299.2713    24.4087    11.4483
   368.2091    215.7928     1.755     0.982 -47.56     7.85      0.000      0.000      7.849    368.5210    215.6622    369.6260    215.5497    21.6309    12.6794
    95.4455    326.9164     4.739     2.841  24.03    22.02      0.000      0.000      8.847     95.5097    326.9512     96.2403    327.1158    48.9791    21.0843
   468.2588    192.2510     1.239     1.091 -62.85     4.83      0.000      0.000      1.898    468.0778    192.3088    468.4055    192.1541     1.0143     0.9700
   187.6691    486.4529     0.986     0.948 -83.86     3.64      0.000      0.000      1.766    187.5804    486.7874    187.6038    486.3421    17.4036     0.6118
   320.3673    154.4345     2.208     1.705 -14.71     5.57      0.000      0.000      4.587    320.6181    154.5455    320.5937    154.5399     2.4953    17.3784
   163.2373    151.6009     1.789     1.606 -31.02     6.60      0.000      0.000      3.823    163.3538    151.2141    163.2920    151.4102     4.3477    17.2948
   141.0349    484.9709     0.798     0.783 -17.46     4.69      0.000      0.000      1.480    141.0349    484.9709    141.1448    484.9146     1.9047     0.5098
   136.5717    198.6463     2.287     1.588  53.22     8.20      0.000      0.000      8.890    135.9996    197.5880    136.0404    197.6700     0.7689    29.9869
   399.7699    288.6051     4.902     2.740 -83.37    21.99      0.000      0.000     16.494    399.9572    288.9588    399.8854    288.2228    29.4369    15.8153
    14.9370    306.6466     1.478     0.654 -34.37     5.86      0.000      0.000      5.634     14.0441    307.4200     12.9751    305.4302    52.3634    16.2861
   104.9379    317.0404     1.977     1.282 -61.40     8.75      0.000      0.000      7.103    104.6373    316.9121    104.6311    317.0566     3.7966    14.0701
   260.5389    141.3062     2.415     1.973 -33.61    13.09      0.000      0.000      8.948    260.4484    141.1634    261.0422    143.6115    10.6798    20.8300
    37.4535    145.5008     1.130     0.952  15.58     4.79      0.000      0.000      1.659     37.3795    145.6395     37.3718    145.4358     1.0286     0.8162
   491.8849    142.9599     1.432     1.360 -48.66     3.21      0.000      0.000      1.702    491.7141    142.9867    491.7387    142.9951     1.0628     0.7234
   424.2873    143.9422     0.742     0.678 -75.77     4.20      0.000      0.000      1.544    424.2873    143.9422    424.1385    143.7546     3.1417     1.0090
     3.5463    263.9500     3.666     1.760 -84.93    15.23      0.000      0.000     13.289      3.5651    263.8815      4.2675    263.6119    55.7850    24.2130
    89.0401    287.9177     2.170     1.866  81.36     4.03      0.000      0.000      2.356     88.8714    287.9007     88.9343    287.9347     1.3865     1.4904
   448.9662    136.3815     2.362     2.039 -64.92     5.41      0.000      0.000      2.988    448.9981    136.4150    448.9893    136.4339     2.2093     1.9102
     1.7916    291.9443     1.443     0.636 -79.83     5.71      0.000      0.000      5.158      0.7623    292.7642      2.9658    291.8464     5.5631     9.6961
   109.8761    136.7220     1.384     1.017  82.70     7.09      0.000      0.000      4.278    109.7515    136.2008    110.2186    137.0614    48.6316    24.7951
   169.8543    481.9520     1.135     0.721   7.32     5.39      0.000      0.000      1.742    169.7040    481.9041    169.8542    482.0691     0.7839     0.7423
   486.8234    127.4085     1.018     0.922  28.28     5.77      0.000      0.000      1.599    487.2984    127.7385    486.9420    127.4353     4.7790     0.3544
   193.2486    124.3676     2.106     1.619  45.24     6.28      0.000      0.000      2.673    192.9601    124.1578    193.0104    124.2764    21.1888     1.7072
    23.0980    120.6469     1.051     0.755 -77.36     5.00      0.000      0.000      2.749     23.0980    120.6469     22.7999    121.0660     3.0553     1.5922
   197.5304    115.1769     2.451     1.325 -14.06     7.63      0.000      0.000      3.960    197.8373    114.7615    197.6532    114.8718    11.0487     3.2865
   334.7990     94.7202     2.375     1.614 -55.22    11.73      0.000      0.000      8.270    334.7531     93.9208    334.5839     95.5819    30.9647    11.2951
   335.6966    104.3834     2.194     1.025 -31.31     8.98      0.000      0.000      7.040    335.3258    104.6683    336.0015    104.1875     2.8938    16.6323
   329.2632    106.8544     2.097     1.452  75.92    10.45      0.000      0.000      9.843    328.8666    106.7887    328.9540    106.5614    32.6718    24.2508
   324.2675    102.9353     4.086     2.582 -16.70    17.85      0.000      0.000     13.460    323.5055    103.6843    324.6513    102.8901    20.4411    24.3670
   446.8081    102.7213     1.425     1.047 -45.97     5.48      0.000      0.000      2.403    446.9437    102.5779    446.7616    102.6368     2.5701     1.5276
   198.7272    100.4072     1.669     0.938  13.02     7.12      0.000      0.000      6.525    198.5237    100.5261    199.1751    100.3928    10.2164    13.5978
   201.9282     94.7931     3.881     2.974  68.03    20.39      0.000      0.000      8.848    201.6478     94.9533    202.0383     97.3004   133.7933     5.8962
   213.6059    480.3487     0.997     0.869 -39.27     3.19      0.000      0.000      1.748    213.6644    480.5876    213.6231    480.3762     1.6278     0.8510
   304.4867     99.9612     1.711     1.073  49.83     8.11      0.000      0.000      7.397    304.5904    100.3536    306.1947     97.8852    11.8856    18.9893
   135.8530     98.1608     1.917     1.816  -8.66    11.18      0.000      0.000      8.942    136.2178     99.5894    137.3835     98.8802    16.3842    15.6543
   100.9980    256.3515     4.541     2.819  55.56    18.85      0.000      0.000      5.204     99.9986    256.0226    100.8398    255.9962    13.5758     6.8166
   410.9734     94.5243     0.795     0.499   1.37     3.72      0.000      0.000      1.919    410.9734     94.5243    410.7953     94.4457    15.9163     1.2797
   134.6367     85.6542     2.865     2.494 -57.51     6.36      0.000      0.000      3.833    134.5008     85.3070    134.6053     85.4285    61.8675     1.9203
   409.0416    260.6017     3.636     1.766   1.29    15.20      0.000      0.000      8.455    408.5362    260.3444    407.0724    260.6032    15.5432    11.2036
   108.0218    233.8754    10.140     6.733 -89.05    43.77      0.000      0.000     12.392    106.4009    234.7441    109.9698    234.0788     8.3221    32.3018
   405.4416    246.5076     4.406     2.360  77.99    19.13      0.000      0.000     14.942    405.2214    246.3089    405.3136    246.2745    14.6742    20.2579
    32.3160    261.4456     0.944     0.542  59.39     4.24      0.000      0.000      1.900     32.3160    261.4456     32.1721    261.4201     2.5758     1.0060
   397.5732    272.5843     1.477     1.021 -73.88     7.34      0.000      0.000      6.859    397.1428    272.5521    398.4368    273.7803    41.4008    20.6357
   489.7992    478.8082     0.771     0.559  49.56     3.88      0.000      0.000      1.552    489.7992    478.8082    489.6419    478.6116     0.8374     0.0487
    38.8107     81.3058     1.451     0.737 -58.57     6.17      0.000      0.000      3.130     39.2378     80.9491     39.0197     81.0304    11.6318     2.5394
   386.1472     76.9366     1.694     1.559 -41.22     3.11      0.000      0.000      1.833    386.0711     76.8694    386.0971     76.8878     1.6313     0.7234
   354.8265    249.7207     1.763     1.443  87.86     4.67      0.000      0.000      3.804    354.6177    249.2951    354.6206    249.3303     4.2661     6.8889
    75.5011     76.6903     1.952     1.399 -71.23     5.74      0.000      0.000      2.308     75.5297     76.7567     75.4412     76.7903     2.6400     1.5592
   331.6765     76.7568     2.214     1.631  30.16     7.83      0.000      0.000      3.395    331.3001     76.6709    331.5457     76.8354     8.8815     2.2871
   475.9909     76.4734     0.795     0.314  32.14     2.69      0.000      0.000      1.983    475.9909     76.4734    475.8355     76.2930     2.0635     2.7453
   243.0841     66.8767     2.285     1.819 -28.22     5.60      0.000      0.000      2.656    243.0453     66.7522    243.0687     66.7947     5.7491     1.6102
   326.8435     66.3121     0.863     0.594  31.39     3.94      0.000      0.000      1.844    326.8435     66.3121    326.8553     66.4011     1.6050     0.8460
   454.7713     59.0369     2.011     1.677 -84.03     6.19      0.000      0.000      2.620    454.6264     59.0930    454.6726     59.0621     7.3711     1.7447
   337.1930     61.1226     1.228     1.149  72.19     4.77      0.000      0.000      1.957    336.8857     60.8598    337.1429     61.0994     1.6129     1.0693
   420.5239    331.2678     1.657     1.596 -45.56     3.08      0.000      0.000      1.801    420.5976    331.2006    420.5728    331.2148     0.4372     0.7512
   149.5781    342.5920     1.037     0.800 -56.48     3.34      0.000      0.000      1.421    149.8150    342.4416    149.6559    342.5078     0.3761     0.5438
   463.9502     58.5918     1.633     0.755 -10.77     6.63      0.000      0.000      2.507    463.5903     58.6288    463.9675     58.5499     2.5735     1.7003
    58.1065     51.2433     2.537     2.201 -71.09     6.70      0.000      0.000      3.541     57.9158     51.4256     57.9995     51.3641     7.7341     2.1123
   124.7991     49.1289     1.701     1.265   9.64     5.42      0.000      0.000      2.244    124.6557     49.1601    124.6547     49.0479     5.7467     0.8802
    85.4955     46.4414     1.250     1.059 -81.07     3.29      0.000      0.000      1.632     85.4873     46.5137     85.4529     46.4287     1.1129     0.2142
   152.0947    465.7719     1.119     1.092   3.44     3.53      0.000      0.000      1.685    151.9713    465.5316    152.1258    465.6805     0.9873     0.7150
   464.2777     36.4043     1.233     0.707 -44.05     5.56      0.000      0.000      2.456    464.2777     36.4043    464.1109     36.7276     3.8901     1.5463
   110.2821    450.7021     5.210     4.590 -79.82     8.58      0.000      0.000      6.007    110.1450    450.4356    110.2426    450.5298     6.4330     3.8832
   246.3439     26.6972     1.636     1.543 -30.16     5.43      0.000      0.000      2.726    246.4739     26.8118    246.4350     26.7761    19.1128     1.1456
   120.6482     29.1350     1.057     0.747 -15.44     5.29      0.000      0.000      1.777    120.6482     29.1350    120.7250     29.1981     2.0759     0.9709
   450.5091    462.0844     1.633     0.989  73.54     5.69      0.000      0.000      2.638    450.3242    462.2654    450.5837    462.3276     2.1418     2.0612
     6.7612    457.6755     1.908     1.765 -16.22     5.07      0.000      0.000      2.682      6.7867    457.8565      6.8062    457.8103    24.9908     1.1750
   101.8879     16.8368     1.228     0.818 -14.85     4.67      0.000      0.000      1.560    101.7035     16.9803    101.8269     16.9363     1.0248     0.7608
   326.5388    452.6624     1.064     0.943 -42.01     3.32      0.000      0.000      1.726    326.5126    452.8587    326.4523    452.7685     0.4127     0.8835
   134.4795    303.4453     2.480     2.169 -61.78     9.94      0.000      0.000      7.244    134.4017    304.5218    134.0955    303.7331     9.6564     5.7372
    72.5841    441.7713     0.741     0.453  70.71     2.33      0.000      0.000      1.601     72.5841    441.7713     72.4918    441.7487     0.7463     0.5605
   412.2221    243.2300     2.690     1.471  70.37    11.92      0.000      0.000     10.178    412.3416    243.5587    410.5788    243.4130    91.9156    43.4589
   135.6496    349.2013     4.883     1.279  27.12    14.98      0.000      0.000      6.009    134.9356    348.2664    135.3183    348.9780    10.1614     6.3579
   276.1256    434.5719     1.699     1.543 -48.26     3.14      0.000      0.000      1.795    276.1394    434.5868    276.1416    434.5874     0.3196     0.7579
